File: plot_datasets/graph-14_Nov/UV-Vis_SentiGlass/SentiGlass_14Nov_DC5_01.txt
Batch	SentiGlass_14Nov013.sre
Evolution 600 288002	100%T Baseline Correction
Sample001 Cycle01	14/11/2022 11:21:42AM
nm	A
200.00	XXX.XXX
201.00	XXX.XXX
202.00	XXX.XXX
203.00	XXX.XXX
204.00	XXX.XXX
205.00	XXX.XXX
206.00	XXX.XXX
207.00	XXX.XXX
208.00	XXX.XXX
209.00	XXX.XXX
210.00	XXX.XXX
211.00	XXX.XXX
212.00	XXX.XXX
213.00	XXX.XXX
214.00	XXX.XXX
215.00	XXX.XXX
216.00	XXX.XXX
217.00	XXX.XXX
218.00	XXX.XXX
219.00	XXX.XXX
220.00	XXX.XXX
221.00	XXX.XXX
222.00	XXX.XXX
223.00	XXX.XXX
224.00	XXX.XXX
225.00	XXX.XXX
226.00	XXX.XXX
227.00	XXX.XXX
228.00	XXX.XXX
229.00	XXX.XXX
230.00	XXX.XXX
231.00	XXX.XXX
232.00	XXX.XXX
233.00	XXX.XXX
234.00	XXX.XXX
235.00	XXX.XXX
236.00	XXX.XXX
237.00	XXX.XXX
238.00	XXX.XXX
239.00	XXX.XXX
240.00	XXX.XXX
241.00	XXX.XXX
242.00	XXX.XXX
243.00	XXX.XXX
244.00	XXX.XXX
245.00	XXX.XXX
246.00	XXX.XXX
247.00	XXX.XXX
248.00	XXX.XXX
249.00	XXX.XXX
250.00	XXX.XXX
251.00	XXX.XXX
252.00	XXX.XXX
253.00	XXX.XXX
254.00	XXX.XXX
255.00	XXX.XXX
256.00	XXX.XXX
257.00	XXX.XXX
258.00	XXX.XXX
259.00	XXX.XXX
260.00	XXX.XXX
261.00	XXX.XXX
262.00	XXX.XXX
263.00	XXX.XXX
264.00	XXX.XXX
265.00	XXX.XXX
266.00	XXX.XXX
267.00	XXX.XXX
268.00	XXX.XXX
269.00	XXX.XXX
270.00	XXX.XXX
271.00	XXX.XXX
272.00	XXX.XXX
273.00	XXX.XXX
274.00	XXX.XXX
275.00	XXX.XXX
276.00	XXX.XXX
277.00	XXX.XXX
278.00	XXX.XXX
279.00	XXX.XXX
280.00	XXX.XXX
281.00	XXX.XXX
282.00	XXX.XXX
283.00	XXX.XXX
284.00	XXX.XXX
285.00	XXX.XXX
286.00	XXX.XXX
287.00	XXX.XXX
288.00	XXX.XXX
289.00	XXX.XXX
290.00	XXX.XXX
291.00	XXX.XXX
292.00	XXX.XXX
293.00	XXX.XXX
294.00	XXX.XXX
295.00	XXX.XXX
296.00	XXX.XXX
297.00	XXX.XXX
298.00	XXX.XXX
299.00	XXX.XXX
300.00	XXX.XXX
301.00	XXX.XXX
302.00	XXX.XXX
303.00	XXX.XXX
304.00	XXX.XXX
305.00	XXX.XXX
306.00	XXX.XXX
307.00	XXX.XXX
308.00	XXX.XXX
309.00	XXX.XXX
310.00	XXX.XXX
311.00	4.493
313.00	3.817
315.00	3.454
317.00	3.204
319.00	2.996
321.00	2.878
323.00	2.779
325.00	2.551
327.00	2.509
329.00	2.465
331.00	2.411
333.00	2.360
335.00	2.308
337.00	2.252
339.00	2.162
341.00	2.056
343.00	1.932
345.00	1.798
347.00	1.656
349.00	1.518
351.00	1.388
353.00	1.260
355.00	1.143
357.00	1.041
359.00	0.951
361.00	0.878
363.00	0.817
365.00	0.766
367.00	0.723
369.00	0.689
371.00	0.660
373.00	0.635
375.00	0.617
377.00	0.598
379.00	0.579
381.00	0.561
383.00	0.545
385.00	0.530
387.00	0.514
389.00	0.502
391.00	0.489
393.00	0.479
395.00	0.464
397.00	0.454
399.00	0.444
401.00	0.434
403.00	0.424
405.00	0.416
407.00	0.407
409.00	0.399
411.00	0.391
413.00	0.373
415.00	0.366
417.00	0.358
419.00	0.351
421.00	0.343
423.00	0.338
425.00	0.331
427.00	0.325
429.00	0.322
431.00	0.316
433.00	0.310
435.00	0.299
437.00	0.297
439.00	0.292
441.00	0.286
443.00	0.283
445.00	0.275
447.00	0.272
449.00	0.269
451.00	0.264
453.00	0.257
455.00	0.253
457.00	0.247
459.00	0.242
461.00	0.237
463.00	0.235
465.00	0.227
467.00	0.223
469.00	0.216
471.00	0.213
473.00	0.208
475.00	0.202
477.00	0.199
479.00	0.197
481.00	0.191
483.00	0.191
485.00	0.187
487.00	0.180
489.00	0.181
491.00	0.179
493.00	0.176
495.00	0.171
497.00	0.170
499.00	0.166
501.00	0.164
503.00	0.160
505.00	0.159
507.00	0.158
509.00	0.155
511.00	0.155
513.00	0.156
515.00	0.154
517.00	0.154
519.00	0.152
521.00	0.146
523.00	0.147
525.00	0.147
527.00	0.143
529.00	0.141
531.00	0.138
533.00	0.135
535.00	0.132
537.00	0.128
539.00	0.129
541.00	0.123
543.00	0.123
545.00	0.123
547.00	0.118
549.00	0.115
551.00	0.114
553.00	0.108
555.00	0.107
557.00	0.105
559.00	0.101
561.00	0.100
563.00	0.097
565.00	0.095
567.00	0.097
569.00	0.092
571.00	0.090
573.00	0.089
575.00	0.087
577.00	0.082
579.00	0.082
581.00	0.080
583.00	0.077
585.00	0.081
587.00	0.077
589.00	0.076
591.00	0.074
593.00	0.072
595.00	0.071
597.00	0.069
599.00	0.070
601.00	0.065
603.00	0.064
605.00	0.063
607.00	0.062
609.00	0.059
611.00	0.060
613.00	0.059
615.00	0.059
617.00	0.056
619.00	0.056
621.00	0.052
623.00	0.053
625.00	0.051
627.00	0.050
629.00	0.048
631.00	0.050
633.00	0.050
635.00	0.048
637.00	0.043
639.00	0.045
641.00	0.044
643.00	0.044
645.00	0.044
647.00	0.041
649.00	0.040
651.00	0.037
653.00	0.041
655.00	0.040
657.00	0.036
659.00	0.039
661.00	0.038
663.00	0.037
665.00	0.038
667.00	0.033
669.00	0.036
671.00	0.034
673.00	0.033
675.00	0.033
677.00	0.032
679.00	0.031
681.00	0.032
683.00	0.034
685.00	0.032
687.00	0.031
689.00	0.031
691.00	0.033
693.00	0.031
695.00	0.030
697.00	0.028
699.00	0.029
701.00	0.025
703.00	0.025
705.00	0.022
707.00	0.023
709.00	0.020
711.00	0.021
713.00	0.017
715.00	0.018
717.00	0.017
719.00	0.014
721.00	0.017
723.00	0.014
725.00	0.012
727.00	0.015
729.00	0.012
731.00	0.013
733.00	0.012
735.00	0.012
737.00	0.010
739.00	0.014
741.00	0.010
743.00	0.012
745.00	0.011
747.00	0.013
749.00	0.012
751.00	0.010
753.00	0.010
755.00	0.012
757.00	0.008
759.00	0.008
761.00	0.007
763.00	0.006
765.00	0.005
767.00	0.007
769.00	0.004
771.00	0.004
773.00	0.006
775.00	0.006
777.00	0.007
779.00	0.008
781.00	0.007
783.00	0.010
785.00	0.008
787.00	0.007
789.00	0.007
791.00	0.006
793.00	0.004
795.00	0.010
797.00	0.004
799.00	0.001
800.00	0.003