File: plot_datasets/graph-14_Nov/UV-Vis_SentiGlass/SentiGlass_14Nov_DC2_01.txt
Batch	SentiGlass_14Nov006.sre
Evolution 600 288002	100%T Baseline Correction
Sample001 Cycle01	14/11/2022 10:56:23AM
nm	A
200.00	XXX.XXX
201.00	XXX.XXX
202.00	XXX.XXX
203.00	XXX.XXX
204.00	XXX.XXX
205.00	XXX.XXX
206.00	XXX.XXX
207.00	XXX.XXX
208.00	XXX.XXX
209.00	XXX.XXX
210.00	XXX.XXX
211.00	XXX.XXX
212.00	XXX.XXX
213.00	XXX.XXX
214.00	XXX.XXX
215.00	XXX.XXX
216.00	XXX.XXX
217.00	XXX.XXX
218.00	XXX.XXX
219.00	XXX.XXX
220.00	XXX.XXX
221.00	XXX.XXX
222.00	XXX.XXX
223.00	XXX.XXX
224.00	XXX.XXX
225.00	XXX.XXX
226.00	XXX.XXX
227.00	XXX.XXX
228.00	XXX.XXX
229.00	XXX.XXX
230.00	XXX.XXX
231.00	XXX.XXX
232.00	XXX.XXX
233.00	XXX.XXX
234.00	XXX.XXX
235.00	XXX.XXX
236.00	XXX.XXX
237.00	XXX.XXX
238.00	XXX.XXX
239.00	XXX.XXX
240.00	XXX.XXX
241.00	XXX.XXX
242.00	XXX.XXX
243.00	XXX.XXX
244.00	XXX.XXX
245.00	XXX.XXX
246.00	XXX.XXX
247.00	XXX.XXX
248.00	XXX.XXX
249.00	XXX.XXX
250.00	XXX.XXX
251.00	XXX.XXX
252.00	XXX.XXX
253.00	XXX.XXX
254.00	XXX.XXX
255.00	XXX.XXX
256.00	XXX.XXX
257.00	XXX.XXX
258.00	XXX.XXX
259.00	XXX.XXX
260.00	XXX.XXX
261.00	XXX.XXX
262.00	XXX.XXX
263.00	XXX.XXX
264.00	XXX.XXX
265.00	XXX.XXX
266.00	XXX.XXX
267.00	XXX.XXX
268.00	XXX.XXX
269.00	XXX.XXX
270.00	XXX.XXX
271.00	XXX.XXX
272.00	XXX.XXX
273.00	XXX.XXX
274.00	XXX.XXX
275.00	XXX.XXX
276.00	XXX.XXX
277.00	XXX.XXX
278.00	XXX.XXX
279.00	XXX.XXX
280.00	XXX.XXX
281.00	XXX.XXX
282.00	XXX.XXX
283.00	XXX.XXX
284.00	XXX.XXX
285.00	XXX.XXX
286.00	XXX.XXX
287.00	XXX.XXX
288.00	XXX.XXX
289.00	XXX.XXX
290.00	XXX.XXX
291.00	XXX.XXX
292.00	XXX.XXX
293.00	XXX.XXX
294.00	XXX.XXX
295.00	XXX.XXX
296.00	XXX.XXX
297.00	XXX.XXX
298.00	XXX.XXX
299.00	XXX.XXX
300.00	XXX.XXX
301.00	XXX.XXX
302.00	XXX.XXX
303.00	XXX.XXX
304.00	XXX.XXX
305.00	XXX.XXX
306.00	XXX.XXX
307.00	XXX.XXX
308.00	XXX.XXX
309.00	XXX.XXX
310.00	XXX.XXX
311.00	4.695
313.00	3.613
315.00	3.369
317.00	3.042
319.00	2.911
321.00	2.764
323.00	2.655
325.00	2.537
327.00	2.494
329.00	2.437
331.00	2.389
333.00	2.337
335.00	2.295
337.00	2.261
339.00	2.216
341.00	2.168
343.00	2.112
345.00	2.046
347.00	1.958
349.00	1.869
351.00	1.782
353.00	1.678
355.00	1.585
357.00	1.498
359.00	1.421
361.00	1.355
363.00	1.302
365.00	1.254
367.00	1.215
369.00	1.184
371.00	1.159
373.00	1.136
375.00	1.119
377.00	1.101
379.00	1.085
381.00	1.068
383.00	1.054
385.00	1.039
387.00	1.020
389.00	1.008
391.00	0.994
393.00	0.984
395.00	0.967
397.00	0.954
399.00	0.942
401.00	0.928
403.00	0.917
405.00	0.904
407.00	0.892
409.00	0.880
411.00	0.869
413.00	0.848
415.00	0.836
417.00	0.828
419.00	0.818
421.00	0.812
423.00	0.806
425.00	0.800
427.00	0.795
429.00	0.791
431.00	0.784
433.00	0.779
435.00	0.773
437.00	0.770
439.00	0.762
441.00	0.758
443.00	0.754
445.00	0.747
447.00	0.745
449.00	0.743
451.00	0.737
453.00	0.731
455.00	0.728
457.00	0.726
459.00	0.723
461.00	0.721
463.00	0.719
465.00	0.714
467.00	0.713
469.00	0.711
471.00	0.709
473.00	0.708
475.00	0.705
477.00	0.702
479.00	0.702
481.00	0.699
483.00	0.700
485.00	0.700
487.00	0.697
489.00	0.695
491.00	0.696
493.00	0.694
495.00	0.691
497.00	0.691
499.00	0.690
501.00	0.689
503.00	0.689
505.00	0.689
507.00	0.688
509.00	0.687
511.00	0.686
513.00	0.690
515.00	0.689
517.00	0.689
519.00	0.687
521.00	0.684
523.00	0.679
525.00	0.675
527.00	0.667
529.00	0.658
531.00	0.648
533.00	0.637
535.00	0.623
537.00	0.610
539.00	0.597
541.00	0.579
543.00	0.562
545.00	0.545
547.00	0.526
549.00	0.504
551.00	0.486
553.00	0.465
555.00	0.447
557.00	0.427
559.00	0.407
561.00	0.388
563.00	0.368
565.00	0.348
567.00	0.334
569.00	0.314
571.00	0.296
573.00	0.282
575.00	0.269
577.00	0.254
579.00	0.243
581.00	0.229
583.00	0.215
585.00	0.204
587.00	0.191
589.00	0.178
591.00	0.170
593.00	0.162
595.00	0.154
597.00	0.147
599.00	0.141
601.00	0.132
603.00	0.124
605.00	0.118
607.00	0.110
609.00	0.101
611.00	0.097
613.00	0.090
615.00	0.086
617.00	0.081
619.00	0.076
621.00	0.072
623.00	0.070
625.00	0.065
627.00	0.062
629.00	0.056
631.00	0.052
633.00	0.050
635.00	0.043
637.00	0.037
639.00	0.034
641.00	0.030
643.00	0.027
645.00	0.025
647.00	0.022
649.00	0.018
651.00	0.015
653.00	0.017
655.00	0.014
657.00	0.007
659.00	0.008
661.00	0.002
663.00	0.000
665.00	-0.003
667.00	-0.009
669.00	-0.012
671.00	-0.014
673.00	-0.017
675.00	-0.019
677.00	-0.023
679.00	-0.023
681.00	-0.022
683.00	-0.022
685.00	-0.025
687.00	-0.026
689.00	-0.029
691.00	-0.031
693.00	-0.035
695.00	-0.039
697.00	-0.043
699.00	-0.045
701.00	-0.052
703.00	-0.054
705.00	-0.058
707.00	-0.057
709.00	-0.060
711.00	-0.060
713.00	-0.061
715.00	-0.062
717.00	-0.063
719.00	-0.065
721.00	-0.064
723.00	-0.068
725.00	-0.070
727.00	-0.072
729.00	-0.078
731.00	-0.080
733.00	-0.082
735.00	-0.086
737.00	-0.087
739.00	-0.085
741.00	-0.087
743.00	-0.085
745.00	-0.084
747.00	-0.080
749.00	-0.080
751.00	-0.079
753.00	-0.079
755.00	-0.078
757.00	-0.081
759.00	-0.083
761.00	-0.083
763.00	-0.087
765.00	-0.091
767.00	-0.092
769.00	-0.095
771.00	-0.098
773.00	-0.097
775.00	-0.097
777.00	-0.096
779.00	-0.094
781.00	-0.094
783.00	-0.092
785.00	-0.086
787.00	-0.087
789.00	-0.085
791.00	-0.084
793.00	-0.084
795.00	-0.082
797.00	-0.085
799.00	-0.087
800.00	-0.090