File: plot_datasets/graph-14_Nov/UV-Vis_SentiGlass/SentiGlass_14Nov_HA3_01.txt
Batch	SentiGlass_14Nov015.sre
Evolution 600 288002	100%T Baseline Correction
Sample001 Cycle01	14/11/2022 11:29:48AM
nm	A
200.00	XXX.XXX
201.00	XXX.XXX
202.00	XXX.XXX
203.00	XXX.XXX
204.00	XXX.XXX
205.00	XXX.XXX
206.00	XXX.XXX
207.00	XXX.XXX
208.00	XXX.XXX
209.00	XXX.XXX
210.00	XXX.XXX
211.00	XXX.XXX
212.00	XXX.XXX
213.00	XXX.XXX
214.00	XXX.XXX
215.00	XXX.XXX
216.00	XXX.XXX
217.00	XXX.XXX
218.00	XXX.XXX
219.00	XXX.XXX
220.00	XXX.XXX
221.00	XXX.XXX
222.00	XXX.XXX
223.00	XXX.XXX
224.00	XXX.XXX
225.00	XXX.XXX
226.00	XXX.XXX
227.00	XXX.XXX
228.00	XXX.XXX
229.00	XXX.XXX
230.00	XXX.XXX
231.00	XXX.XXX
232.00	XXX.XXX
233.00	XXX.XXX
234.00	XXX.XXX
235.00	XXX.XXX
236.00	XXX.XXX
237.00	XXX.XXX
238.00	XXX.XXX
239.00	XXX.XXX
240.00	XXX.XXX
241.00	XXX.XXX
242.00	XXX.XXX
243.00	XXX.XXX
244.00	XXX.XXX
245.00	XXX.XXX
246.00	XXX.XXX
247.00	XXX.XXX
248.00	XXX.XXX
249.00	XXX.XXX
250.00	XXX.XXX
251.00	XXX.XXX
252.00	XXX.XXX
253.00	XXX.XXX
254.00	XXX.XXX
255.00	XXX.XXX
256.00	XXX.XXX
257.00	XXX.XXX
258.00	XXX.XXX
259.00	XXX.XXX
260.00	XXX.XXX
261.00	XXX.XXX
262.00	XXX.XXX
263.00	XXX.XXX
264.00	XXX.XXX
265.00	XXX.XXX
266.00	XXX.XXX
267.00	XXX.XXX
268.00	XXX.XXX
269.00	XXX.XXX
270.00	XXX.XXX
271.00	XXX.XXX
272.00	XXX.XXX
273.00	XXX.XXX
274.00	XXX.XXX
275.00	XXX.XXX
276.00	XXX.XXX
277.00	XXX.XXX
278.00	XXX.XXX
279.00	XXX.XXX
280.00	XXX.XXX
281.00	XXX.XXX
282.00	XXX.XXX
283.00	XXX.XXX
284.00	XXX.XXX
285.00	XXX.XXX
286.00	XXX.XXX
287.00	XXX.XXX
288.00	XXX.XXX
289.00	XXX.XXX
290.00	XXX.XXX
291.00	XXX.XXX
292.00	XXX.XXX
293.00	XXX.XXX
294.00	XXX.XXX
295.00	XXX.XXX
296.00	XXX.XXX
297.00	XXX.XXX
298.00	XXX.XXX
299.00	XXX.XXX
300.00	XXX.XXX
301.00	XXX.XXX
302.00	XXX.XXX
303.00	XXX.XXX
304.00	XXX.XXX
305.00	XXX.XXX
306.00	XXX.XXX
307.00	XXX.XXX
308.00	3.913
310.00	3.411
312.00	3.051
314.00	2.798
316.00	2.604
318.00	2.445
320.00	2.317
322.00	2.197
324.00	2.103
326.00	2.098
328.00	2.040
330.00	1.978
332.00	1.922
334.00	1.870
336.00	1.828
338.00	1.787
340.00	1.734
342.00	1.692
344.00	1.643
346.00	1.590
348.00	1.527
350.00	1.471
352.00	1.408
354.00	1.342
356.00	1.279
358.00	1.221
360.00	1.165
362.00	1.125
364.00	1.084
366.00	1.053
368.00	1.024
370.00	0.998
372.00	0.980
374.00	0.963
376.00	0.951
378.00	0.936
380.00	0.918
382.00	0.907
384.00	0.891
386.00	0.878
388.00	0.868
390.00	0.855
392.00	0.843
394.00	0.831
396.00	0.820
398.00	0.809
400.00	0.801
402.00	0.788
404.00	0.780
406.00	0.769
408.00	0.760
410.00	0.748
412.00	0.731
414.00	0.719
416.00	0.709
418.00	0.702
420.00	0.693
422.00	0.682
424.00	0.674
426.00	0.662
428.00	0.653
430.00	0.645
432.00	0.634
434.00	0.626
436.00	0.616
438.00	0.605
440.00	0.596
442.00	0.584
444.00	0.576
446.00	0.564
448.00	0.556
450.00	0.547
452.00	0.536
454.00	0.527
456.00	0.519
458.00	0.510
460.00	0.498
462.00	0.489
464.00	0.478
466.00	0.470
468.00	0.463
470.00	0.451
472.00	0.442
474.00	0.434
476.00	0.427
478.00	0.418
480.00	0.412
482.00	0.403
484.00	0.398
486.00	0.392
488.00	0.385
490.00	0.378
492.00	0.371
494.00	0.365
496.00	0.361
498.00	0.356
500.00	0.349
502.00	0.344
504.00	0.337
506.00	0.333
508.00	0.327
510.00	0.321
512.00	0.322
514.00	0.317
516.00	0.312
518.00	0.307
520.00	0.303
522.00	0.297
524.00	0.293
526.00	0.289
528.00	0.285
530.00	0.279
532.00	0.274
534.00	0.270
536.00	0.264
538.00	0.259
540.00	0.255
542.00	0.248
544.00	0.244
546.00	0.242
548.00	0.238
550.00	0.233
552.00	0.228
554.00	0.222
556.00	0.218
558.00	0.217
560.00	0.211
562.00	0.207
564.00	0.203
566.00	0.198
568.00	0.198
570.00	0.195
572.00	0.189
574.00	0.185
576.00	0.179
578.00	0.178
580.00	0.178
582.00	0.174
584.00	0.169
586.00	0.169
588.00	0.165
590.00	0.163
592.00	0.161
594.00	0.156
596.00	0.153
598.00	0.152
600.00	0.149
602.00	0.146
604.00	0.142
606.00	0.142
608.00	0.140
610.00	0.139
612.00	0.134
614.00	0.130
616.00	0.131
618.00	0.131
620.00	0.128
622.00	0.124
624.00	0.124
626.00	0.121
628.00	0.118
630.00	0.116
632.00	0.118
634.00	0.114
636.00	0.114
638.00	0.111
640.00	0.109
642.00	0.108
644.00	0.105
646.00	0.106
648.00	0.104
650.00	0.102
652.00	0.101
654.00	0.100
656.00	0.100
658.00	0.097
660.00	0.098
662.00	0.095
664.00	0.094
666.00	0.094
668.00	0.091
670.00	0.093
672.00	0.090
674.00	0.087
676.00	0.090
678.00	0.087
680.00	0.085
682.00	0.089
684.00	0.084
686.00	0.086
688.00	0.087
690.00	0.087
692.00	0.083
694.00	0.080
696.00	0.081
698.00	0.080
700.00	0.078
702.00	0.075
704.00	0.075
706.00	0.071
708.00	0.070
710.00	0.066
712.00	0.067
714.00	0.065
716.00	0.063
718.00	0.064
720.00	0.061
722.00	0.059
724.00	0.060
726.00	0.059
728.00	0.056
730.00	0.057
732.00	0.056
734.00	0.057
736.00	0.054
738.00	0.058
740.00	0.056
742.00	0.053
744.00	0.054
746.00	0.053
748.00	0.052
750.00	0.050
752.00	0.050
754.00	0.049
756.00	0.050
758.00	0.049
760.00	0.049
762.00	0.047
764.00	0.048
766.00	0.049
768.00	0.049
770.00	0.047
772.00	0.047
774.00	0.049
776.00	0.047
778.00	0.048
780.00	0.044
782.00	0.045
784.00	0.043
786.00	0.045
788.00	0.041
790.00	0.042
792.00	0.044
794.00	0.040
796.00	0.040
798.00	0.042
800.00	0.036