File: plot_datasets/graph-14_Nov/UV-Vis_SentiGlass/SentiGlass_14Nov_DC_Ref01.txt
Batch	SentiGlass_14Nov005.sre
Evolution 600 288002	100%T Baseline Correction
DC_Ref Cycle01	14/11/2022 10:49:42AM
nm	A
200.00	XXX.XXX
201.00	XXX.XXX
202.00	XXX.XXX
203.00	XXX.XXX
204.00	XXX.XXX
205.00	XXX.XXX
206.00	XXX.XXX
207.00	XXX.XXX
208.00	XXX.XXX
209.00	XXX.XXX
210.00	XXX.XXX
211.00	XXX.XXX
212.00	XXX.XXX
213.00	XXX.XXX
214.00	XXX.XXX
215.00	XXX.XXX
216.00	XXX.XXX
217.00	XXX.XXX
218.00	XXX.XXX
219.00	XXX.XXX
220.00	XXX.XXX
221.00	XXX.XXX
222.00	XXX.XXX
223.00	XXX.XXX
224.00	XXX.XXX
225.00	XXX.XXX
226.00	XXX.XXX
227.00	XXX.XXX
228.00	XXX.XXX
229.00	XXX.XXX
230.00	XXX.XXX
231.00	XXX.XXX
232.00	XXX.XXX
233.00	XXX.XXX
234.00	XXX.XXX
235.00	XXX.XXX
236.00	XXX.XXX
237.00	XXX.XXX
238.00	XXX.XXX
239.00	XXX.XXX
240.00	XXX.XXX
241.00	XXX.XXX
242.00	XXX.XXX
243.00	XXX.XXX
244.00	XXX.XXX
245.00	XXX.XXX
246.00	XXX.XXX
247.00	XXX.XXX
248.00	XXX.XXX
249.00	XXX.XXX
250.00	XXX.XXX
251.00	XXX.XXX
252.00	XXX.XXX
253.00	XXX.XXX
254.00	XXX.XXX
255.00	XXX.XXX
256.00	XXX.XXX
257.00	XXX.XXX
258.00	XXX.XXX
259.00	XXX.XXX
260.00	XXX.XXX
261.00	XXX.XXX
262.00	XXX.XXX
263.00	XXX.XXX
264.00	XXX.XXX
265.00	XXX.XXX
266.00	XXX.XXX
267.00	XXX.XXX
268.00	XXX.XXX
269.00	XXX.XXX
270.00	XXX.XXX
271.00	XXX.XXX
272.00	XXX.XXX
273.00	XXX.XXX
274.00	XXX.XXX
275.00	XXX.XXX
276.00	XXX.XXX
277.00	XXX.XXX
278.00	XXX.XXX
279.00	XXX.XXX
280.00	XXX.XXX
281.00	XXX.XXX
282.00	XXX.XXX
283.00	XXX.XXX
284.00	XXX.XXX
285.00	XXX.XXX
286.00	XXX.XXX
287.00	XXX.XXX
288.00	XXX.XXX
289.00	XXX.XXX
290.00	XXX.XXX
291.00	XXX.XXX
292.00	XXX.XXX
293.00	XXX.XXX
294.00	XXX.XXX
295.00	XXX.XXX
296.00	XXX.XXX
297.00	XXX.XXX
298.00	XXX.XXX
299.00	XXX.XXX
300.00	XXX.XXX
301.00	XXX.XXX
302.00	XXX.XXX
303.00	XXX.XXX
304.00	XXX.XXX
305.00	XXX.XXX
306.00	XXX.XXX
307.00	XXX.XXX
308.00	XXX.XXX
309.00	XXX.XXX
310.00	XXX.XXX
311.00	XXX.XXX
312.00	XXX.XXX
313.00	XXX.XXX
314.00	XXX.XXX
315.00	XXX.XXX
316.00	XXX.XXX
317.00	XXX.XXX
318.00	XXX.XXX
319.00	XXX.XXX
320.00	XXX.XXX
321.00	XXX.XXX
322.00	XXX.XXX
323.00	XXX.XXX
324.00	XXX.XXX
325.00	XXX.XXX
326.00	XXX.XXX
327.00	XXX.XXX
328.00	XXX.XXX
329.00	XXX.XXX
330.00	XXX.XXX
331.00	XXX.XXX
332.00	XXX.XXX
333.00	XXX.XXX
334.00	XXX.XXX
335.00	XXX.XXX
336.00	XXX.XXX
337.00	XXX.XXX
338.00	XXX.XXX
339.00	XXX.XXX
340.00	XXX.XXX
341.00	XXX.XXX
342.00	XXX.XXX
343.00	XXX.XXX
344.00	XXX.XXX
345.00	XXX.XXX
346.00	XXX.XXX
347.00	XXX.XXX
348.00	XXX.XXX
349.00	XXX.XXX
350.00	XXX.XXX
351.00	XXX.XXX
352.00	XXX.XXX
353.00	XXX.XXX
354.00	XXX.XXX
355.00	XXX.XXX
356.00	XXX.XXX
357.00	XXX.XXX
358.00	XXX.XXX
359.00	XXX.XXX
360.00	XXX.XXX
361.00	XXX.XXX
362.00	XXX.XXX
363.00	XXX.XXX
364.00	XXX.XXX
365.00	XXX.XXX
366.00	XXX.XXX
367.00	XXX.XXX
368.00	XXX.XXX
369.00	XXX.XXX
370.00	XXX.XXX
371.00	XXX.XXX
372.00	XXX.XXX
373.00	XXX.XXX
374.00	XXX.XXX
375.00	XXX.XXX
376.00	XXX.XXX
377.00	XXX.XXX
378.00	XXX.XXX
379.00	XXX.XXX
380.00	XXX.XXX
381.00	XXX.XXX
382.00	XXX.XXX
383.00	XXX.XXX
384.00	XXX.XXX
385.00	XXX.XXX
386.00	XXX.XXX
387.00	XXX.XXX
388.00	XXX.XXX
389.00	XXX.XXX
390.00	XXX.XXX
391.00	XXX.XXX
392.00	XXX.XXX
393.00	XXX.XXX
394.00	XXX.XXX
395.00	XXX.XXX
396.00	XXX.XXX
397.00	XXX.XXX
398.00	XXX.XXX
399.00	XXX.XXX
400.00	XXX.XXX
401.00	XXX.XXX
402.00	XXX.XXX
403.00	XXX.XXX
404.00	XXX.XXX
405.00	XXX.XXX
406.00	XXX.XXX
407.00	XXX.XXX
408.00	XXX.XXX
409.00	XXX.XXX
410.00	XXX.XXX
411.00	XXX.XXX
412.00	XXX.XXX
413.00	XXX.XXX
414.00	XXX.XXX
415.00	XXX.XXX
416.00	XXX.XXX
417.00	XXX.XXX
418.00	XXX.XXX
419.00	XXX.XXX
420.00	XXX.XXX
421.00	XXX.XXX
422.00	XXX.XXX
423.00	XXX.XXX
424.00	XXX.XXX
425.00	XXX.XXX
426.00	XXX.XXX
427.00	XXX.XXX
428.00	XXX.XXX
429.00	XXX.XXX
430.00	XXX.XXX
431.00	XXX.XXX
432.00	XXX.XXX
433.00	XXX.XXX
434.00	XXX.XXX
435.00	XXX.XXX
436.00	XXX.XXX
437.00	XXX.XXX
438.00	XXX.XXX
439.00	XXX.XXX
440.00	XXX.XXX
441.00	XXX.XXX
442.00	XXX.XXX
443.00	XXX.XXX
444.00	XXX.XXX
445.00	XXX.XXX
446.00	XXX.XXX
447.00	XXX.XXX
448.00	XXX.XXX
449.00	XXX.XXX
450.00	XXX.XXX
451.00	XXX.XXX
452.00	XXX.XXX
453.00	XXX.XXX
454.00	XXX.XXX
455.00	4.902
456.00	XXX.XXX
457.00	XXX.XXX
458.00	4.604
460.00	4.149
462.00	3.925
464.00	3.775
466.00	3.645
468.00	3.544
470.00	3.442
472.00	3.386
474.00	3.322
476.00	3.264
478.00	3.213
480.00	3.164
482.00	3.134
484.00	3.087
486.00	3.059
488.00	3.035
490.00	3.008
492.00	2.979
494.00	2.954
496.00	2.936
498.00	2.919
500.00	2.894
502.00	2.877
504.00	2.859
506.00	2.841
508.00	2.845
510.00	2.824
512.00	2.799
514.00	2.775
516.00	2.750
518.00	2.724
520.00	2.705
522.00	2.673
524.00	2.657
526.00	2.629
528.00	2.590
530.00	2.554
532.00	2.521
534.00	2.480
536.00	2.437
538.00	2.397
540.00	2.354
542.00	2.309
544.00	2.267
546.00	2.228
548.00	2.178
550.00	2.133
552.00	2.089
554.00	2.042
556.00	2.000
558.00	1.960
560.00	1.916
562.00	1.874
564.00	1.836
566.00	1.798
568.00	1.762
570.00	1.725
572.00	1.695
574.00	1.661
576.00	1.625
578.00	1.597
580.00	1.572
582.00	1.541
584.00	1.515
586.00	1.493
588.00	1.470
590.00	1.445
592.00	1.423
594.00	1.402
596.00	1.381
598.00	1.358
600.00	1.342
602.00	1.326
604.00	1.308
606.00	1.290
608.00	1.273
610.00	1.260
612.00	1.243
614.00	1.226
616.00	1.213
618.00	1.203
620.00	1.190
622.00	1.171
624.00	1.158
626.00	1.148
628.00	1.139
630.00	1.125
632.00	1.114
634.00	1.103
636.00	1.094
638.00	1.082
640.00	1.071
642.00	1.063
644.00	1.054
646.00	1.045
648.00	1.032
650.00	1.021
652.00	1.013
654.00	1.006
656.00	1.000
658.00	0.989
660.00	0.980
662.00	0.971
664.00	0.962
666.00	0.955
668.00	0.946
670.00	0.942
672.00	0.937
674.00	0.932
676.00	0.924
678.00	0.911
680.00	0.902
682.00	0.901
684.00	0.898
686.00	0.896
688.00	0.890
690.00	0.887
692.00	0.879
694.00	0.872
696.00	0.867
698.00	0.861
700.00	0.861
702.00	0.863
704.00	0.864
706.00	0.859
708.00	0.856
710.00	0.845
712.00	0.841
714.00	0.839
716.00	0.839
718.00	0.840
720.00	0.834
722.00	0.835
724.00	0.832
726.00	0.830
728.00	0.824
730.00	0.822
732.00	0.817
734.00	0.815
736.00	0.812
738.00	0.819
740.00	0.820
742.00	0.817
744.00	0.815
746.00	0.811
748.00	0.805
750.00	0.803
752.00	0.804
754.00	0.804
756.00	0.800
758.00	0.801
760.00	0.801
762.00	0.803
764.00	0.802
766.00	0.799
768.00	0.796
770.00	0.792
772.00	0.788
774.00	0.791
776.00	0.792
778.00	0.796
780.00	0.793
782.00	0.791
784.00	0.789
786.00	0.787
788.00	0.785
790.00	0.783
792.00	0.785
794.00	0.780
796.00	0.781
798.00	0.780
800.00	0.778